Sensor Name: tty
Initial Resistance: 40 ohms
Time (s), Voltage (V)
0.51, 0.81
0.76, 0.81
0.94, 0.80
1.07, 0.81
1.19, 0.81
1.31, 0.80
1.47, 0.80
1.60, 0.81
1.72, 0.81
1.84, 0.80
1.97, 0.80
2.09, 0.80
2.24, 0.80
2.37, 0.80
2.50, 0.80
2.62, 0.80
2.75, 0.80
2.89, 0.80
3.00, 0.80
3.12, 0.80
3.24, 0.79
3.37, 0.79
3.49, 0.79
3.60, 0.79
3.72, 0.79
3.84, 0.79
3.95, 0.80
4.07, 0.79
4.19, 0.79
4.30, 0.80
4.42, 0.80
4.54, 0.79
4.65, 0.80
4.77, 0.80
4.89, 0.79
5.00, 0.79
5.12, 0.80
5.23, 0.79
5.35, 0.79
5.47, 0.79
5.58, 0.80
5.70, 0.80
5.82, 0.79
5.93, 0.80
6.05, 0.79
6.17, 0.79
6.28, 0.79
6.40, 0.79
6.51, 0.79
6.63, 0.79
6.75, 0.79
6.87, 0.79
6.98, 0.79
7.10, 0.79
7.21, 0.79
7.33, 0.79
7.45, 0.79
7.56, 0.79
7.69, 0.79
7.81, 0.79
7.93, 0.78
8.05, 0.78
8.17, 0.79
8.28, 0.78
8.40, 0.78
8.51, 0.79
8.63, 0.79
8.75, 0.78
8.86, 0.79
8.98, 0.79
9.10, 0.78
9.21, 0.78
9.33, 0.78
9.46, 0.78
9.58, 0.78
9.69, 0.78
9.81, 0.78
9.93, 0.78
10.05, 0.78
10.16, 0.78
10.28, 0.78
10.40, 0.78
10.51, 0.78
10.63, 0.78
10.75, 0.77
10.86, 0.78
10.98, 0.78
11.10, 0.78
11.23, 0.78
11.40, 0.78
11.51, 0.78
11.63, 0.78
11.74, 0.78
11.86, 0.78
11.98, 0.78
12.09, 0.78
12.21, 0.77
12.33, 0.78
12.44, 0.78
12.56, 0.77
12.68, 0.78
12.79, 0.78
12.91, 0.78
13.03, 0.78
13.14, 0.78
13.26, 0.78
13.38, 0.77
13.49, 0.78
13.61, 0.78
13.73, 0.77
13.84, 0.78
13.96, 0.77
14.08, 0.78
14.19, 0.77
14.31, 0.78
14.42, 0.78
14.54, 0.78
14.66, 0.78
14.77, 0.79
14.89, 0.80
15.04, 0.81
15.16, 0.82
15.27, 0.83
15.39, 0.85
15.51, 0.86
15.62, 0.87
15.74, 0.89
15.86, 0.90
15.97, 0.92
16.09, 0.94
16.21, 0.96
16.33, 0.98
16.49, 0.99
16.61, 1.01
16.72, 1.03
16.84, 1.04
16.96, 1.06
17.07, 1.08
17.22, 1.09
17.34, 1.11
17.45, 1.12
17.57, 1.13
17.69, 1.15
17.81, 1.16
17.92, 1.18
18.04, 1.19
18.16, 1.21
18.27, 1.22
18.39, 1.24
18.51, 1.25
18.62, 1.26
18.74, 1.27
18.85, 1.29
18.97, 1.30
19.09, 1.31
19.20, 1.32
19.32, 1.33
19.44, 1.35
19.55, 1.36
19.67, 1.37
19.79, 1.38
19.90, 1.39
20.02, 1.40
20.14, 1.41
20.25, 1.42
20.37, 1.43
20.49, 1.45
20.60, 1.45
20.72, 1.47
20.84, 1.47
20.95, 1.48
21.07, 1.49
21.19, 1.49
21.30, 1.51
21.42, 1.51
21.53, 1.52
21.65, 1.52
21.77, 1.53
21.89, 1.54
22.00, 1.55
22.12, 1.55
22.23, 1.56
22.35, 1.57
22.47, 1.58
22.58, 1.58
22.70, 1.60
22.82, 1.60
22.93, 1.61
23.05, 1.62
23.17, 1.62
23.28, 1.63
23.40, 1.64
23.52, 1.65
23.63, 1.65
23.75, 1.65
23.87, 1.66
23.98, 1.67
24.10, 1.67
24.22, 1.68
24.33, 1.69
24.45, 1.69
24.57, 1.70
24.68, 1.70
24.80, 1.70
24.94, 1.71
25.10, 1.71
25.22, 1.72
25.33, 1.72
25.45, 1.73
25.57, 1.73
25.68, 1.74
25.80, 1.74
25.92, 1.74
26.03, 1.74
26.15, 1.75
26.26, 1.75
26.38, 1.76
26.50, 1.77
26.61, 1.77
26.73, 1.77
26.85, 1.78
26.96, 1.78
27.08, 1.78
27.19, 1.80
27.31, 1.80
27.43, 1.80
27.55, 1.80
27.66, 1.81
27.78, 1.81
27.90, 1.80
28.01, 1.81
28.13, 1.82
28.25, 1.82
28.36, 1.82
28.48, 1.82
28.60, 1.84
28.71, 1.83
28.83, 1.84
28.94, 1.83
29.06, 1.84
29.18, 1.84
29.29, 1.84
29.41, 1.84
29.53, 1.85
29.64, 1.85
29.76, 1.86
29.88, 1.86
29.99, 1.86
30.11, 1.87
30.23, 1.86
30.34, 1.86
30.46, 1.88
30.58, 1.88
30.69, 1.87
30.81, 1.88
30.93, 1.89
31.04, 1.89
31.18, 1.88
31.29, 1.89
31.41, 1.89
31.53, 1.89
31.64, 1.89
31.76, 1.89
31.87, 1.89
31.99, 1.90
32.11, 1.89
32.22, 1.90
32.34, 1.89
32.46, 1.89
32.57, 1.90
32.69, 1.90
32.81, 1.90
32.92, 1.90
33.04, 1.90
33.16, 1.91
33.27, 1.91
33.39, 1.91
33.51, 1.91
33.62, 1.91
33.74, 1.92
33.86, 1.92
33.97, 1.92
34.09, 1.92
34.20, 1.92
34.32, 1.92
34.44, 1.92
34.56, 1.92
34.69, 1.93
34.80, 1.93
34.92, 1.93
35.04, 1.93
35.16, 1.93
35.27, 1.93
35.40, 1.93
35.55, 1.93
35.67, 1.93
35.79, 1.93
35.90, 1.93
36.02, 1.93
36.14, 1.93
36.25, 1.93
36.37, 1.93
36.49, 1.94
36.60, 1.93
36.72, 1.93
36.84, 1.94
36.95, 1.94
37.07, 1.94
37.19, 1.94
37.30, 1.94
37.42, 1.94
37.54, 1.94
37.65, 1.94
37.77, 1.95
37.89, 1.95
38.00, 1.94
38.12, 1.95
38.23, 1.95
38.35, 1.94
38.47, 1.95
38.58, 1.95
38.70, 1.95
38.82, 1.95
38.93, 1.95
39.05, 1.95
39.17, 1.95
39.28, 1.96
39.40, 1.95
39.52, 1.95
39.63, 1.95
39.75, 1.95
39.87, 1.95
39.99, 1.95
40.10, 1.95
40.22, 1.95
40.33, 1.95
40.45, 1.95
40.57, 1.95
40.68, 1.95
40.80, 1.95
40.92, 1.95
41.03, 1.96
41.15, 1.95
41.27, 1.96
41.38, 1.96
41.50, 1.96
41.62, 1.96
41.73, 1.96
41.85, 1.96
41.97, 1.96
42.08, 1.96
42.20, 1.96
42.31, 1.96
42.43, 1.96
42.55, 1.96
42.66, 1.96
42.78, 1.96
42.90, 1.96
43.01, 1.96
43.13, 1.96
43.25, 1.96
43.36, 1.96
43.48, 1.96
43.60, 1.96
43.71, 1.96
43.83, 1.96
43.95, 1.96
44.06, 1.96
44.18, 1.96
44.30, 1.96
44.41, 1.96
44.53, 1.96
44.65, 1.97
44.76, 1.96
44.88, 1.96
45.00, 1.96
45.11, 1.97
45.23, 1.96
45.35, 1.97
45.46, 1.97
45.58, 1.97
45.71, 1.96
45.83, 1.97
45.94, 1.97
46.06, 1.96
46.18, 1.97
46.29, 1.97
46.41, 1.96
46.53, 1.97
46.64, 1.96
46.76, 1.97
46.88, 1.97
46.99, 1.96
47.11, 1.96
47.23, 1.96
47.34, 1.96
47.46, 1.96
47.58, 1.96
47.69, 1.97
47.81, 1.96
47.93, 1.97
48.04, 1.97
48.16, 1.97
48.28, 1.98
48.39, 1.97
48.51, 1.97
48.63, 1.98
48.74, 1.97
48.86, 1.97
48.98, 1.98
49.09, 1.98
49.21, 1.98
49.33, 1.97
49.44, 1.98
49.56, 1.98
49.67, 1.97
49.79, 1.98
49.91, 1.98
50.03, 1.97
50.14, 1.98
50.26, 1.97
50.37, 1.98
50.49, 1.97
50.61, 1.97
50.72, 1.98
50.84, 1.97
50.96, 1.97
51.07, 1.97
51.19, 1.97
51.31, 1.97
51.42, 1.97
51.54, 1.97
51.66, 1.97
51.77, 1.97
51.89, 1.98
52.01, 1.97
52.12, 1.97
52.24, 1.98
52.36, 1.98
52.47, 1.97
52.59, 1.98
52.71, 1.98
52.82, 1.98
52.94, 1.97
53.05, 1.98
53.17, 1.98
53.29, 1.98
53.40, 1.98
53.52, 1.98
53.64, 1.97
53.75, 1.98
53.87, 1.97
53.99, 1.97
54.10, 1.98
54.22, 1.97
54.34, 1.97
54.45, 1.97
54.57, 1.97
54.69, 1.97
54.80, 1.97
54.92, 1.97
55.04, 1.97
55.15, 1.97
55.27, 1.97
55.39, 1.97
55.50, 1.98
55.62, 1.97
55.74, 1.97
55.85, 1.98
56.00, 1.97
56.12, 1.97
56.24, 1.98
56.35, 1.97
56.47, 1.97
56.59, 1.98
56.70, 1.98
56.82, 1.97
56.94, 1.97
57.05, 1.98
57.17, 1.97
57.28, 1.97
57.40, 1.97
57.52, 1.97
57.63, 1.97
57.75, 1.97
57.87, 1.97
57.98, 1.97
58.10, 1.96
58.22, 1.97
58.33, 1.96
58.45, 1.96
58.56, 1.97
58.68, 1.97
58.80, 1.97
58.92, 1.97
59.03, 1.97
59.15, 1.97
59.27, 1.97
59.38, 1.97
59.50, 1.97
59.62, 1.97
59.73, 1.97
59.85, 1.98
59.96, 1.97
60.08, 1.97
60.20, 1.97
60.32, 1.97
60.43, 1.97
60.55, 1.97
60.66, 1.97
60.78, 1.97
60.90, 1.97
61.01, 1.97
61.13, 1.97
61.25, 1.97
61.36, 1.96
61.48, 1.97
61.60, 1.96
61.71, 1.96
61.83, 1.96
61.95, 1.96
62.06, 1.96
62.18, 1.96
62.30, 1.96
62.41, 1.96
62.53, 1.96
62.64, 1.97
62.76, 1.97
62.88, 1.96
63.00, 1.96
63.11, 1.97
63.23, 1.96
63.34, 1.97
63.46, 1.97
63.58, 1.97
63.69, 1.96
63.81, 1.97
63.93, 1.97
64.04, 1.97
64.16, 1.97
64.28, 1.97
64.39, 1.96
64.51, 1.97
64.63, 1.97
64.74, 1.96
64.86, 1.97
64.98, 1.96
65.09, 1.97
65.21, 1.96
65.33, 1.96
65.44, 1.96
65.56, 1.96
65.68, 1.96
65.79, 1.96
65.91, 1.96
66.03, 1.96
66.14, 1.96
66.26, 1.97
66.38, 1.96
66.49, 1.96
66.61, 1.97
66.72, 1.96
66.84, 1.96
66.96, 1.97
67.08, 1.97
67.19, 1.96
67.31, 1.96
67.42, 1.97
67.54, 1.97
67.66, 1.96
67.78, 1.96
67.89, 1.97
68.01, 1.97
68.12, 1.97
68.24, 1.97
68.36, 1.96
68.47, 1.97
68.59, 1.96
68.71, 1.96
68.82, 1.96
68.94, 1.96
69.06, 1.96
69.17, 1.96
69.29, 1.96
69.41, 1.96
69.52, 1.96
69.64, 1.96
69.75, 1.96
69.87, 1.96
69.99, 1.96
70.11, 1.96
70.22, 1.97
70.34, 1.96
70.45, 1.96
70.57, 1.96
70.69, 1.97
70.80, 1.96
70.92, 1.96
71.04, 1.97
71.15, 1.97
71.27, 1.96
71.39, 1.97
71.50, 1.96
71.62, 1.96
71.74, 1.96
71.85, 1.97
71.97, 1.96
72.09, 1.97
72.20, 1.96
72.32, 1.97
72.44, 1.96
72.55, 1.96
72.67, 1.96
72.79, 1.96
72.90, 1.96
73.02, 1.96
73.14, 1.96
73.25, 1.96
73.37, 1.96
73.49, 1.96
73.60, 1.96
73.72, 1.96
73.84, 1.96
73.95, 1.96
74.07, 1.96
74.18, 1.96
74.30, 1.96
74.42, 1.96
74.54, 1.97
74.65, 1.97
74.77, 1.97
74.88, 1.96
75.00, 1.96
75.12, 1.96
75.23, 1.96
75.35, 1.96
75.47, 1.96
75.58, 1.96
75.70, 1.96
75.82, 1.96
75.93, 1.96
76.05, 1.96
76.17, 1.96
76.28, 1.96
76.40, 1.96
76.55, 1.96
76.67, 1.96
76.78, 1.96
76.90, 1.96
77.02, 1.96
77.13, 1.96
77.25, 1.96
77.37, 1.96
77.48, 1.96
77.60, 1.96
77.71, 1.96
77.83, 1.96
77.95, 1.96
78.06, 1.96
78.18, 1.96
78.30, 1.96
78.41, 1.96
78.53, 1.96
78.65, 1.96
78.76, 1.96
78.88, 1.96
79.00, 1.96
79.11, 1.96
79.23, 1.96
79.35, 1.96
79.46, 1.96
79.58, 1.96
79.70, 1.96
79.81, 1.95
79.93, 1.96
80.05, 1.96
80.16, 1.96
80.28, 1.96
80.40, 1.96
80.51, 1.96
80.63, 1.96
80.75, 1.96
80.86, 1.96
80.98, 1.96
81.10, 1.95
81.21, 1.96
81.33, 1.96
81.45, 1.96
81.56, 1.96
81.68, 1.96
81.79, 1.96
81.91, 1.96
82.03, 1.96
82.14, 1.96
82.26, 1.96
82.38, 1.96
82.49, 1.96
82.61, 1.96
82.73, 1.96
82.84, 1.96
82.96, 1.96
83.08, 1.96
83.19, 1.95
83.31, 1.96
83.43, 1.95
83.54, 1.96
83.66, 1.95
83.78, 1.96
83.89, 1.95
84.01, 1.95
84.13, 1.95
84.24, 1.95
84.36, 1.95
84.48, 1.96
84.59, 1.96
84.71, 1.95
84.83, 1.96
84.94, 1.96
85.06, 1.95
85.17, 1.96
85.29, 1.96
85.41, 1.96
85.52, 1.96
85.64, 1.96
85.76, 1.96
85.87, 1.96
85.99, 1.96
86.11, 1.96
86.22, 1.95
86.35, 1.96
86.47, 1.96
86.59, 1.96
86.70, 1.96
86.82, 1.95
86.94, 1.96
87.06, 1.95
87.17, 1.96
87.29, 1.95
87.41, 1.95
87.52, 1.95
87.64, 1.95
87.75, 1.95
87.87, 1.95
87.99, 1.95
88.10, 1.96
88.22, 1.95
88.34, 1.95
88.46, 1.95
88.57, 1.96
88.69, 1.95
88.80, 1.96
88.92, 1.96
89.04, 1.96
89.15, 1.96
89.27, 1.96
89.39, 1.96
89.50, 1.95
89.62, 1.96
89.74, 1.96
89.85, 1.95
89.97, 1.96
90.09, 1.95
90.20, 1.95
90.32, 1.96
90.44, 1.95
90.55, 1.95
90.67, 1.95
90.79, 1.95
90.90, 1.95
91.02, 1.95
91.13, 1.95
91.25, 1.95
91.37, 1.95
91.48, 1.95
91.60, 1.95
91.72, 1.96
91.84, 1.95
91.95, 1.94
92.07, 1.96
92.18, 1.95
92.30, 1.95
92.42, 1.96
92.53, 1.96
92.65, 1.95
92.77, 1.96
92.88, 1.96
93.00, 1.96
93.12, 1.95
93.23, 1.95
93.35, 1.96
93.47, 1.95
93.58, 1.96
93.70, 1.95
93.82, 1.95
93.93, 1.95
94.05, 1.94
94.18, 1.95
94.30, 1.95
94.42, 1.95
94.53, 1.95
94.65, 1.95
94.77, 1.94
94.88, 1.95
95.00, 1.95
95.11, 1.95
95.23, 1.95
95.35, 1.95
95.47, 1.95
95.58, 1.95
95.70, 1.96
95.81, 1.95
95.93, 1.94
96.05, 1.95
96.16, 1.95
96.28, 1.94
96.40, 1.96
96.51, 1.96
96.63, 1.95
96.75, 1.95
96.86, 1.96
96.98, 1.95
97.11, 1.94
97.23, 1.95
97.35, 1.95
97.46, 1.95
97.58, 1.95
97.70, 1.94
97.81, 1.95
97.93, 1.95
98.05, 1.95
98.16, 1.94
98.28, 1.94
98.40, 1.94
98.51, 1.94
98.63, 1.94
98.74, 1.94
98.86, 1.94
98.98, 1.95
99.09, 1.94
99.21, 1.95
99.33, 1.95
99.44, 1.94
99.56, 1.95
99.68, 1.95
99.79, 1.95
99.91, 1.94
100.03, 1.95
100.14, 1.95
100.26, 1.95
100.38, 1.95
100.49, 1.95
100.61, 1.95
100.73, 1.94
100.84, 1.95
100.96, 1.94
101.08, 1.95
101.19, 1.94
101.31, 1.94
101.43, 1.94
101.54, 1.94
101.66, 1.95
101.77, 1.94
101.89, 1.94
102.01, 1.94
102.12, 1.94
102.24, 1.94
102.36, 1.94
102.47, 1.94
102.59, 1.94
102.71, 1.94
102.82, 1.95
102.94, 1.94
103.06, 1.94
103.17, 1.95
103.29, 1.95
103.41, 1.94
103.52, 1.95
103.64, 1.94
103.76, 1.94
103.87, 1.94
103.99, 1.95
104.11, 1.95
104.22, 1.94
104.34, 1.95
104.46, 1.94
104.57, 1.93
104.69, 1.94
104.81, 1.94
104.92, 1.94
105.04, 1.94
105.16, 1.94
105.27, 1.94
105.39, 1.94
105.51, 1.94
105.62, 1.94
105.74, 1.93
105.85, 1.94
105.97, 1.93
106.09, 1.94
106.20, 1.94
106.32, 1.93
106.44, 1.94
106.55, 1.93
106.67, 1.94
106.79, 1.94
106.90, 1.94
107.02, 1.94
107.14, 1.94
107.27, 1.95
107.39, 1.94
107.50, 1.94
107.62, 1.95
107.74, 1.94
107.85, 1.94
107.97, 1.94
108.09, 1.94
108.20, 1.94
108.32, 1.94
108.44, 1.94
108.55, 1.93
108.67, 1.93
108.79, 1.94
108.90, 1.93
109.02, 1.94
109.14, 1.93
109.25, 1.93
109.37, 1.93
109.49, 1.93
109.60, 1.93
109.72, 1.93
109.84, 1.93
109.95, 1.94
110.07, 1.93
110.18, 1.93
110.30, 1.94
110.42, 1.93
110.53, 1.93
110.65, 1.94
110.77, 1.94
110.88, 1.93
111.00, 1.93
111.12, 1.94
111.23, 1.93
111.35, 1.93
111.47, 1.94
111.58, 1.94
111.70, 1.93
111.81, 1.94
111.93, 1.93
112.05, 1.93
112.17, 1.94
112.28, 1.93
112.40, 1.93
112.52, 1.92
112.63, 1.93
112.75, 1.93
112.86, 1.93
112.98, 1.93
113.10, 1.93
113.22, 1.92
113.33, 1.93
113.45, 1.93
113.56, 1.93
113.68, 1.92
113.80, 1.94
113.91, 1.93
114.03, 1.93
114.15, 1.93
114.26, 1.93
114.38, 1.93
114.50, 1.93
114.61, 1.93
114.73, 1.93
114.85, 1.93
114.96, 1.93
115.08, 1.93
115.20, 1.93
115.31, 1.93
115.43, 1.93
115.55, 1.92
115.66, 1.93
115.78, 1.92
115.90, 1.93
116.01, 1.92
116.12, 1.92
116.24, 1.92
116.36, 1.92
116.48, 1.92
116.59, 1.92
116.71, 1.92
116.83, 1.92
116.94, 1.92
117.07, 1.92
117.19, 1.92
117.31, 1.93
117.43, 1.92
117.54, 1.92
117.66, 1.93
117.78, 1.92
117.89, 1.92
118.01, 1.93
118.13, 1.93
118.24, 1.92
118.36, 1.93
118.48, 1.93
118.59, 1.93
118.71, 1.92
118.83, 1.92
118.94, 1.92
119.06, 1.92
119.18, 1.92
119.29, 1.92
119.41, 1.92
119.53, 1.92
119.64, 1.92
119.76, 1.92
119.87, 1.92
119.99, 1.92
120.11, 1.92
120.22, 1.92
120.34, 1.92
120.46, 1.92
120.58, 1.92
120.69, 1.92
120.81, 1.92
120.92, 1.92
121.04, 1.92
121.16, 1.92
121.27, 1.92
121.39, 1.92
121.51, 1.93
121.62, 1.92
121.74, 1.92
121.86, 1.92
121.97, 1.93
122.09, 1.92
122.21, 1.92
122.32, 1.93
122.44, 1.93
122.55, 1.92
122.67, 1.93
122.79, 1.91
122.91, 1.92
123.02, 1.92
123.14, 1.91
123.25, 1.92
123.37, 1.91
123.49, 1.92
123.60, 1.91
123.72, 1.92
123.84, 1.91
123.95, 1.91
124.07, 1.92
124.19, 1.91
124.30, 1.92
124.42, 1.91
124.54, 1.91
124.65, 1.92
124.77, 1.92
124.89, 1.92
125.00, 1.92
125.12, 1.92
125.24, 1.92
125.35, 1.92
125.47, 1.92
125.59, 1.92
125.70, 1.92
125.82, 1.92
125.95, 1.92
126.07, 1.91
126.20, 1.92
126.32, 1.92
126.44, 1.91
126.55, 1.92
126.67, 1.91
126.79, 1.92
126.90, 1.91
127.02, 1.92
127.16, 1.91
127.29, 1.91
127.40, 1.91
127.52, 1.91
127.63, 1.91
127.75, 1.91
127.87, 1.91
127.99, 1.91
128.10, 1.91
128.24, 1.92
128.35, 1.91
128.47, 1.91
128.58, 1.92
128.70, 1.92
128.82, 1.91
128.93, 1.92
129.05, 1.92
129.17, 1.91
129.28, 1.91
129.40, 1.92
129.52, 1.91
129.63, 1.91
129.75, 1.91
129.87, 1.92
129.98, 1.91
130.10, 1.92
130.21, 1.91
130.33, 1.91
130.45, 1.91
130.57, 1.91
130.68, 1.91
130.80, 1.91
130.91, 1.91
131.03, 1.91
131.15, 1.91
131.26, 1.91
131.38, 1.91
131.52, 1.91
131.65, 1.91
131.78, 1.90
131.90, 1.92
132.03, 1.91
132.17, 1.91
132.28, 1.92
132.40, 1.91
132.53, 1.91
132.65, 1.92
132.77, 1.91
132.88, 1.91
133.00, 1.91
133.11, 1.92
133.23, 1.91
133.34, 1.91
133.46, 1.91
133.58, 1.92
133.69, 1.91
133.82, 1.91
133.93, 1.91
134.05, 1.91
134.16, 1.91
134.30, 1.90
134.43, 1.91
134.56, 1.91
134.68, 1.90
134.80, 1.91
134.92, 1.91
135.03, 1.90
135.15, 1.90
135.26, 1.91
135.38, 1.90
135.50, 1.90
135.61, 1.91
135.73, 1.91
135.84, 1.91
135.96, 1.91
136.08, 1.91
136.19, 1.91
136.31, 1.91
136.43, 1.91
136.56, 1.90
136.68, 1.91
136.79, 1.92
136.91, 1.91
137.03, 1.91
137.16, 1.91
137.28, 1.91
137.39, 1.90
137.51, 1.91
137.63, 1.90
137.74, 1.91
137.86, 1.90
137.98, 1.90
138.09, 1.90
138.21, 1.90
138.33, 1.90
138.44, 1.90
138.56, 1.90
138.68, 1.91
138.79, 1.90
138.90, 1.90
139.01, 1.91
139.12, 1.90
139.24, 1.90
139.35, 1.91
139.47, 1.90
139.59, 1.91
139.71, 1.91
140.03, 1.90
140.16, 1.90
140.27, 1.91
140.39, 1.90
140.50, 1.90
140.62, 1.91
140.74, 1.91
140.86, 1.91
140.97, 1.90
141.09, 1.91
141.21, 1.91
141.33, 1.90
141.44, 1.90
141.56, 1.90
141.67, 1.91
141.79, 1.90
141.91, 1.90
142.02, 1.90
142.14, 1.90
142.26, 1.90
142.37, 1.90
142.49, 1.90
142.61, 1.90
142.72, 1.90
142.84, 1.90
142.96, 1.90
143.07, 1.90
143.19, 1.90
143.31, 1.90
143.44, 1.91
143.58, 1.90
143.71, 1.90
143.82, 1.91
143.94, 1.91
144.06, 1.90
144.17, 1.90
144.28, 1.91
144.41, 1.91
144.52, 1.90
144.64, 1.91
144.75, 1.90
144.88, 1.90
144.99, 1.91
145.12, 1.90
145.24, 1.90
145.35, 1.90
145.47, 1.90
145.59, 1.90
145.70, 1.90
145.82, 1.90
145.93, 1.90
146.06, 1.90
146.18, 1.89
146.30, 1.90
146.42, 1.90
146.53, 1.89
146.65, 1.90
146.77, 1.90
146.88, 1.89
147.00, 1.90
147.12, 1.89
147.24, 1.90
147.35, 1.90
147.47, 1.90
147.59, 1.90
147.70, 1.90
147.83, 1.91
147.95, 1.90
148.07, 1.90
148.18, 1.90
148.30, 1.91
148.42, 1.90
148.53, 1.90
148.65, 1.90
148.77, 1.90
148.88, 1.90
149.00, 1.90
149.11, 1.90
149.24, 1.89
149.35, 1.90
149.47, 1.89
149.58, 1.89
149.70, 1.90
149.82, 1.89
149.93, 1.89
150.05, 1.90
150.16, 1.89
150.28, 1.90
150.40, 1.90
150.51, 1.89
150.63, 1.90
150.75, 1.90
150.86, 1.89
150.98, 1.90
151.10, 1.90
151.21, 1.90
151.33, 1.90
151.44, 1.90
151.56, 1.90
151.68, 1.90
151.79, 1.90
151.91, 1.90
152.03, 1.89
152.14, 1.90
152.26, 1.90
152.38, 1.89
152.50, 1.90
152.61, 1.89
152.73, 1.90
152.84, 1.89
152.96, 1.89
153.11, 1.89
153.26, 1.89
153.38, 1.89
153.49, 1.89
153.61, 1.89
153.73, 1.89
153.84, 1.89
153.96, 1.89
154.08, 1.89
154.19, 1.89
154.31, 1.90
154.43, 1.90
154.54, 1.89
154.65, 1.90
154.78, 1.90
154.89, 1.89
155.01, 1.89
155.13, 1.90
155.24, 1.90
155.37, 1.90
155.49, 1.90
155.61, 1.90
155.72, 1.89
155.84, 1.89
155.96, 1.90
156.07, 1.89
156.19, 1.90
156.31, 1.89
156.43, 1.89
156.54, 1.89
156.66, 1.89
156.77, 1.89
156.89, 1.89
157.01, 1.89
157.14, 1.89
157.26, 1.89
157.39, 1.89
157.51, 1.89
157.63, 1.89
157.74, 1.89
157.85, 1.89
157.97, 1.89
158.09, 1.89
158.21, 1.90
158.32, 1.89
158.44, 1.89
158.55, 1.89
158.67, 1.90
158.79, 1.89
158.91, 1.90
159.02, 1.90
159.14, 1.90
159.26, 1.89
159.37, 1.90
159.49, 1.89
159.60, 1.89
159.72, 1.90
159.84, 1.89
159.95, 1.90
160.07, 1.89
160.19, 1.88
160.30, 1.89
160.42, 1.89
160.54, 1.89
160.65, 1.89
160.77, 1.89
160.89, 1.89
161.00, 1.89
161.12, 1.89
161.24, 1.89
161.35, 1.89
161.47, 1.89
161.59, 1.90
161.70, 1.89
161.82, 1.89
161.94, 1.89
162.05, 1.90
162.17, 1.89
162.28, 1.89
162.40, 1.90
162.52, 1.90
162.63, 1.90
162.75, 1.90
162.87, 1.89
162.98, 1.90
163.10, 1.89
163.22, 1.89
163.33, 1.90
163.45, 1.89
163.57, 1.89
163.68, 1.89
163.80, 1.89
163.92, 1.89
164.03, 1.89
164.16, 1.89
164.28, 1.89
164.40, 1.89
164.52, 1.89
164.63, 1.89
164.75, 1.89
164.86, 1.89
164.98, 1.89
165.10, 1.89
165.22, 1.89
165.33, 1.89
165.45, 1.89
165.57, 1.89
165.68, 1.90
165.80, 1.89
165.91, 1.89
166.03, 1.89
166.17, 1.90
166.28, 1.90
166.40, 1.90
166.52, 1.89
166.63, 1.90
166.75, 1.89
166.86, 1.89
166.98, 1.90
167.10, 1.89
167.21, 1.88
167.33, 1.89
167.45, 1.89
167.56, 1.89
167.68, 1.89
167.80, 1.89
167.91, 1.89
168.03, 1.89
168.14, 1.88
168.26, 1.89
168.38, 1.89
168.50, 1.89
168.61, 1.89
168.73, 1.89
168.84, 1.88
168.96, 1.89
169.08, 1.89
169.20, 1.89
169.31, 1.89
169.43, 1.89
169.54, 1.89
169.66, 1.89
169.78, 1.89
169.90, 1.89
170.01, 1.89
170.13, 1.89
170.24, 1.89
170.36, 1.89
170.48, 1.88
170.59, 1.90
170.71, 1.89
170.83, 1.89
170.94, 1.89
171.06, 1.88
171.18, 1.89
171.29, 1.88
171.41, 1.89
171.52, 1.89
171.64, 1.88
171.76, 1.88
171.88, 1.88
171.99, 1.88
172.11, 1.89
172.23, 1.89
172.34, 1.88
172.46, 1.89
172.57, 1.89
172.69, 1.89
172.81, 1.88
172.92, 1.89
173.04, 1.89
173.16, 1.89
173.27, 1.89
173.39, 1.90
173.51, 1.90
173.62, 1.89
173.74, 1.88
173.86, 1.89
173.97, 1.89
174.09, 1.88
174.21, 1.89
174.33, 1.89
174.44, 1.89
174.56, 1.89
174.67, 1.88
174.79, 1.89
174.91, 1.89
175.02, 1.88
175.14, 1.88
175.26, 1.88
175.37, 1.88
175.49, 1.88
175.61, 1.88
175.72, 1.88
175.84, 1.88
175.95, 1.89
176.07, 1.88
176.19, 1.88
176.30, 1.89
176.42, 1.88
176.54, 1.88
176.65, 1.89
176.77, 1.89
176.89, 1.89
177.00, 1.88
177.12, 1.89
177.24, 1.89
177.35, 1.89
177.47, 1.88
177.59, 1.88
177.70, 1.89
177.82, 1.88
177.94, 1.89
178.05, 1.88
178.17, 1.88
178.29, 1.88
178.40, 1.88
178.52, 1.88
178.64, 1.88
178.75, 1.88
178.87, 1.88
178.99, 1.88
179.10, 1.88
179.22, 1.88
179.34, 1.88
179.45, 1.88
179.57, 1.88
179.69, 1.88
179.80, 1.88
179.92, 1.88
180.04, 1.89
180.15, 1.88
180.27, 1.88
180.39, 1.89
180.50, 1.89
180.62, 1.89
180.74, 1.88
180.87, 1.88
180.98, 1.89
181.10, 1.88
181.22, 1.88
181.34, 1.89
181.45, 1.88
181.56, 1.88
181.68, 1.88
181.79, 1.88
181.90, 1.89
182.02, 1.88
182.13, 1.87
182.25, 1.88
182.37, 1.88
182.48, 1.88
182.60, 1.88
182.72, 1.88
182.84, 1.88
182.95, 1.88
183.06, 1.88
183.18, 1.88
183.30, 1.88
183.42, 1.89
183.53, 1.88
183.65, 1.88
183.76, 1.88
183.89, 1.89
184.06, 1.88
184.18, 1.88
184.30, 1.88
184.41, 1.89
184.53, 1.89
184.65, 1.88
184.78, 1.88
184.90, 1.89
185.01, 1.88
185.13, 1.88
185.25, 1.88
185.36, 1.88
185.48, 1.88
185.60, 1.87
185.71, 1.88
185.83, 1.88
185.94, 1.87
186.06, 1.88
186.18, 1.88
186.29, 1.87
186.41, 1.87
186.53, 1.87
186.65, 1.88
186.76, 1.87
186.88, 1.88
187.00, 1.88
187.11, 1.87
187.23, 1.88
187.36, 1.88
187.48, 1.87
187.59, 1.88
187.71, 1.88
187.83, 1.88
187.94, 1.88
188.08, 1.89
188.19, 1.88
188.31, 1.88
188.43, 1.88
188.54, 1.88
188.66, 1.87
188.78, 1.88
188.89, 1.88
189.01, 1.88
189.13, 1.88
