Sensor Name: test_1uf
Initial Resistance: 80 ohms
Time (s), Voltage (V)
1.25, 1.71
1.37, 1.71
1.49, 1.71
1.61, 1.71
1.72, 1.71
1.84, 1.71
1.95, 1.71
2.07, 1.71
2.19, 1.71
2.30, 1.72
2.42, 1.71
2.54, 1.71
2.65, 1.72
2.77, 1.71
2.88, 1.71
3.00, 1.71
3.12, 1.71
3.23, 1.70
3.35, 1.71
3.47, 1.71
3.58, 1.71
3.70, 1.71
3.82, 1.70
3.93, 1.71
4.05, 1.70
4.17, 1.71
4.28, 1.70
4.40, 1.71
4.52, 1.70
4.63, 1.70
4.75, 1.70
4.87, 1.70
4.99, 1.70
5.12, 1.71
5.23, 1.70
5.35, 1.71
5.47, 1.70
5.58, 1.71
5.70, 1.70
5.82, 1.70
5.93, 1.71
6.05, 1.70
6.17, 1.71
6.28, 1.71
6.40, 1.70
6.52, 1.71
6.63, 1.71
6.75, 1.70
6.86, 1.71
6.98, 1.71
7.10, 1.70
7.21, 1.71
7.33, 1.70
7.45, 1.70
7.57, 1.71
7.68, 1.69
7.80, 1.71
7.91, 1.70
8.03, 1.70
8.15, 1.70
8.26, 1.70
8.38, 1.70
8.50, 1.70
8.61, 1.70
8.75, 1.70
8.86, 1.70
8.98, 1.70
9.10, 1.71
9.21, 1.70
9.33, 1.70
9.45, 1.71
9.56, 1.70
9.68, 1.70
9.80, 1.71
9.91, 1.70
10.03, 1.70
10.15, 1.70
10.26, 1.70
10.38, 1.70
10.50, 1.70
10.61, 1.71
10.73, 1.70
10.86, 1.71
10.98, 1.70
11.10, 1.70
11.21, 1.70
11.33, 1.70
11.44, 1.70
11.56, 1.70
11.68, 1.69
11.79, 1.70
11.91, 1.69
12.03, 1.70
12.14, 1.70
12.26, 1.70
12.38, 1.70
12.49, 1.70
12.61, 1.70
12.73, 1.69
12.84, 1.70
12.96, 1.70
13.08, 1.69
13.19, 1.70
13.31, 1.70
13.42, 1.70
13.54, 1.71
13.66, 1.71
13.77, 1.74
13.89, 1.77
14.01, 1.81
14.12, 1.84
14.24, 1.88
14.36, 1.93
14.47, 1.96
14.59, 2.00
14.71, 2.03
14.82, 2.08
14.94, 2.10
15.05, 2.13
15.17, 2.15
15.29, 2.17
15.41, 2.18
15.52, 2.20
15.64, 2.21
15.76, 2.22
15.87, 2.22
15.99, 2.23
16.10, 2.23
16.22, 2.24
16.34, 2.25
16.45, 2.24
16.57, 2.25
16.69, 2.26
16.81, 2.26
16.92, 2.28
17.04, 2.30
17.15, 2.69
17.27, 3.06
17.39, 3.24
17.51, 3.34
17.62, 3.39
17.74, 3.39
17.85, 3.38
17.97, 3.38
18.09, 3.38
18.20, 3.38
18.32, 3.38
18.44, 3.36
18.55, 3.37
18.67, 3.35
18.79, 3.36
18.90, 3.34
19.02, 3.34
19.14, 3.33
19.25, 3.33
19.37, 3.32
19.49, 3.32
19.60, 3.32
19.72, 3.31
19.84, 3.31
19.97, 3.31
20.09, 3.30
20.20, 3.30
20.32, 3.31
20.44, 3.30
20.57, 3.30
20.69, 3.30
20.80, 3.29
20.92, 3.30
21.03, 3.29
21.15, 3.28
21.27, 3.29
21.38, 3.29
21.50, 3.28
21.62, 3.28
21.73, 3.27
21.85, 3.27
21.97, 3.28
22.08, 3.26
22.20, 3.27
22.32, 3.26
22.43, 3.26
22.55, 3.26
22.67, 3.26
22.78, 3.26
22.90, 3.26
23.02, 3.26
23.13, 3.25
23.25, 3.25
23.36, 3.25
23.48, 3.26
23.60, 3.25
23.72, 3.26
23.83, 3.25
23.95, 3.24
24.06, 3.25
24.18, 3.24
24.30, 3.25
24.41, 3.24
24.53, 3.23
24.65, 3.24
24.76, 3.24
24.88, 3.23
25.00, 3.24
25.11, 3.23
25.23, 3.22
25.35, 3.23
25.46, 3.22
25.58, 3.22
25.70, 3.23
25.81, 3.21
25.93, 3.22
26.05, 3.21
26.16, 3.22
26.28, 3.21
26.40, 3.21
26.51, 3.21
26.63, 3.21
26.75, 3.21
26.86, 3.21
26.98, 3.21
27.10, 3.21
27.21, 3.21
27.33, 3.21
27.44, 3.21
27.56, 3.20
27.68, 3.21
27.81, 3.20
27.93, 3.20
28.04, 3.21
28.16, 3.19
28.28, 3.19
28.39, 3.20
28.51, 3.20
28.63, 3.19
28.74, 3.20
28.86, 3.20
28.98, 3.18
29.09, 3.20
29.21, 3.18
29.33, 3.19
29.44, 3.19
29.56, 3.18
29.68, 3.18
29.79, 3.18
29.91, 3.18
30.03, 3.18
30.14, 3.18
30.28, 3.18
30.39, 3.18
30.51, 3.18
30.62, 3.18
30.74, 3.18
30.86, 3.18
30.98, 3.18
31.09, 3.19
31.21, 3.18
31.32, 3.18
31.44, 3.19
31.56, 3.18
31.67, 3.18
31.79, 3.19
31.91, 3.17
32.02, 3.17
32.14, 3.18
32.26, 3.18
32.37, 3.17
32.49, 3.18
32.61, 3.17
32.72, 3.17
32.84, 3.17
32.96, 3.16
33.07, 3.17
33.19, 3.16
33.31, 3.18
33.42, 3.16
33.54, 3.17
33.66, 3.16
33.77, 3.17
33.89, 3.16
34.00, 3.16
34.12, 3.17
34.24, 3.16
34.36, 3.16
34.47, 3.17
34.59, 3.17
34.70, 3.16
34.82, 3.17
34.94, 3.16
35.05, 3.17
35.17, 3.17
35.29, 3.16
35.40, 3.17
35.52, 3.17
35.64, 3.15
35.75, 3.16
35.87, 3.17
35.99, 3.16
36.10, 3.16
36.22, 3.16
36.34, 3.15
36.45, 3.16
36.57, 3.16
36.69, 3.16
36.80, 3.15
36.92, 3.15
37.04, 3.15
37.15, 3.15
37.27, 3.15
37.38, 3.16
37.50, 3.15
37.62, 3.16
37.73, 3.15
37.85, 3.15
37.97, 3.16
38.09, 3.15
38.20, 3.16
38.32, 3.15
38.43, 3.15
38.55, 3.16
38.67, 3.15
38.78, 3.15
38.90, 3.16
39.02, 3.14
39.13, 3.15
39.25, 3.15
39.37, 3.14
39.48, 3.14
39.60, 3.15
39.72, 3.15
39.83, 3.14
39.95, 3.15
40.07, 3.14
40.18, 3.15
40.30, 3.14
40.42, 3.14
40.53, 3.13
40.65, 3.14
40.77, 3.14
40.88, 3.14
41.00, 3.14
41.12, 3.14
41.23, 3.14
41.35, 3.14
41.46, 3.13
41.58, 3.14
41.70, 3.14
41.81, 3.14
41.93, 3.13
42.05, 3.14
42.16, 3.13
42.28, 3.14
42.40, 3.14
42.51, 3.13
42.63, 3.15
42.75, 3.14
42.86, 3.13
42.98, 3.14
43.10, 3.13
43.21, 3.13
43.33, 3.14
43.45, 3.13
43.56, 3.13
43.68, 3.14
43.80, 3.12
43.91, 3.13
44.03, 3.13
44.15, 3.13
44.26, 3.12
44.38, 3.13
44.49, 3.12
44.61, 3.13
44.73, 3.13
44.85, 3.13
44.96, 3.12
45.08, 3.12
45.20, 3.12
45.31, 3.13
45.43, 3.12
45.54, 3.13
45.66, 3.12
45.78, 3.13
45.89, 3.13
46.01, 3.12
46.13, 3.14
46.24, 3.13
46.36, 3.12
46.48, 3.13
46.59, 3.13
46.71, 3.11
46.83, 3.12
46.94, 3.12
47.06, 3.11
47.18, 3.13
47.29, 3.12
47.41, 3.12
47.52, 3.12
47.64, 3.11
47.76, 3.12
47.88, 3.11
47.99, 3.11
48.11, 3.11
48.22, 3.11
48.34, 3.11
48.46, 3.11
48.57, 3.12
48.69, 3.12
48.81, 3.12
48.92, 3.11
49.04, 3.12
49.16, 3.12
49.27, 3.12
49.39, 3.11
49.51, 3.11
49.62, 3.12
49.74, 3.11
49.86, 3.11
49.97, 3.13
50.09, 3.11
50.21, 3.11
50.32, 3.12
50.44, 3.11
50.56, 3.11
50.67, 3.12
50.79, 3.12
50.91, 3.11
51.02, 3.11
51.14, 3.10
51.26, 3.11
51.37, 3.10
51.49, 3.12
51.61, 3.10
51.72, 3.10
51.84, 3.10
51.95, 3.11
52.07, 3.10
52.19, 3.11
52.31, 3.11
52.42, 3.11
52.54, 3.11
52.65, 3.11
52.77, 3.11
52.89, 3.11
53.00, 3.11
53.12, 3.11
53.24, 3.11
53.35, 3.10
53.47, 3.12
53.59, 3.11
53.70, 3.10
53.82, 3.12
53.94, 3.11
54.05, 3.10
54.17, 3.11
54.28, 3.11
54.40, 3.09
54.52, 3.11
54.64, 3.10
54.75, 3.11
54.87, 3.10
54.99, 3.11
55.10, 3.10
55.22, 3.11
55.34, 3.10
55.45, 3.10
55.57, 3.10
55.69, 3.11
55.80, 3.10
55.92, 3.10
56.03, 3.10
56.15, 3.11
56.27, 3.10
56.38, 3.11
56.50, 3.10
56.62, 3.10
56.73, 3.11
56.85, 3.10
56.97, 3.11
57.08, 3.11
57.20, 3.10
57.32, 3.11
57.43, 3.11
57.55, 3.10
57.67, 3.11
57.78, 3.10
57.90, 3.10
58.02, 3.11
58.13, 3.11
58.25, 3.10
58.37, 3.11
58.48, 3.10
58.60, 3.11
58.72, 3.10
58.83, 3.11
58.95, 3.10
59.06, 3.11
59.18, 3.10
59.30, 3.10
59.41, 3.10
59.53, 3.10
59.65, 3.10
59.76, 3.10
59.88, 3.10
60.00, 3.11
60.11, 3.10
60.23, 3.11
60.35, 3.10
60.46, 3.10
60.58, 3.11
60.70, 3.11
60.81, 3.10
60.93, 3.11
61.05, 3.11
61.16, 3.09
61.28, 3.11
61.40, 3.10
61.51, 3.09
61.63, 3.11
61.75, 3.10
61.86, 3.10
61.98, 3.11
62.09, 3.09
62.21, 3.11
62.33, 3.10
62.45, 3.10
62.56, 3.09
62.68, 3.10
62.80, 3.09
62.91, 3.10
63.03, 3.10
63.14, 3.09
63.26, 3.10
63.38, 3.10
63.49, 3.10
63.61, 3.10
63.73, 3.10
63.84, 3.11
63.96, 3.10
64.08, 3.10
64.19, 3.11
64.31, 3.10
64.43, 3.10
64.54, 3.11
64.66, 3.10
64.78, 3.10
64.89, 3.11
65.01, 3.09
65.13, 3.09
65.24, 3.11
65.36, 3.10
65.47, 3.10
65.59, 3.10
65.71, 3.09
65.82, 3.10
65.94, 3.09
66.06, 3.10
66.18, 3.09
66.29, 3.09
66.41, 3.09
66.52, 3.09
66.64, 3.09
66.76, 3.10
66.87, 3.09
66.99, 3.09
67.11, 3.10
67.22, 3.09
67.34, 3.10
67.46, 3.10
67.57, 3.09
67.69, 3.10
67.81, 3.09
67.92, 3.10
68.04, 3.10
68.16, 3.09
68.27, 3.10
68.39, 3.10
68.51, 3.09
68.62, 3.09
68.74, 3.09
68.86, 3.09
68.97, 3.09
69.09, 3.09
69.20, 3.08
69.32, 3.09
69.44, 3.08
69.56, 3.09
69.67, 3.08
69.79, 3.09
69.90, 3.07
70.02, 3.08
70.14, 3.08
70.25, 3.08
70.37, 3.08
70.49, 3.08
70.60, 3.08
70.72, 3.08
70.84, 3.08
70.95, 3.08
71.07, 3.08
71.19, 3.07
71.30, 3.08
71.42, 3.08
71.54, 3.08
71.65, 3.09
71.77, 3.07
71.89, 3.07
72.00, 3.08
72.13, 3.08
72.25, 3.07
72.37, 3.07
72.49, 3.08
72.60, 3.06
72.72, 3.08
72.83, 3.06
72.95, 3.07
73.07, 3.06
73.18, 3.07
73.30, 3.06
73.42, 3.07
73.53, 3.06
73.65, 3.06
73.77, 3.06
73.88, 3.07
74.00, 3.06
74.12, 3.06
74.23, 3.06
74.35, 3.06
74.47, 3.06
74.58, 3.06
74.70, 3.06
74.82, 3.07
74.93, 3.06
75.05, 3.05
75.17, 3.07
75.28, 3.06
75.40, 3.05
75.52, 3.07
75.63, 3.06
75.75, 3.05
75.87, 3.06
75.98, 3.05
76.10, 3.04
76.21, 3.04
76.33, 3.03
76.45, 3.02
76.57, 3.01
76.68, 2.98
76.80, 2.98
76.92, 2.96
77.03, 2.95
77.15, 2.93
77.26, 2.92
77.38, 2.90
77.50, 2.89
77.61, 2.88
77.73, 2.87
77.85, 2.86
77.96, 2.86
78.08, 2.86
78.20, 2.86
78.31, 2.85
78.43, 2.85
78.55, 2.83
78.66, 2.83
78.78, 2.83
78.90, 2.82
79.01, 2.81
79.13, 2.81
79.25, 2.81
79.36, 2.79
79.48, 2.80
79.60, 2.79
79.71, 2.78
79.83, 2.79
79.94, 2.77
80.06, 2.77
80.18, 2.77
80.29, 2.75
80.41, 2.76
80.53, 2.75
80.65, 2.75
80.76, 2.74
80.88, 2.74
80.99, 2.74
81.11, 2.74
81.23, 2.74
81.34, 2.74
81.46, 2.74
81.58, 2.74
81.69, 2.74
81.81, 2.74
81.93, 2.74
82.04, 2.75
82.16, 2.74
82.28, 2.74
82.39, 2.75
82.51, 2.74
82.63, 2.74
82.76, 2.75
82.88, 2.74
82.99, 2.73
83.11, 2.74
83.23, 2.73
83.34, 2.73
83.46, 2.74
83.58, 2.73
83.69, 2.73
83.81, 2.73
83.92, 2.72
84.04, 2.73
84.16, 2.73
84.27, 2.73
84.39, 2.72
84.51, 2.73
84.62, 2.73
84.74, 2.72
84.86, 2.73
84.97, 2.73
85.09, 2.73
85.21, 2.73
85.32, 2.73
85.44, 2.73
85.56, 2.72
85.67, 2.73
85.79, 2.72
85.91, 2.73
86.02, 2.73
86.14, 2.72
86.26, 2.73
86.37, 2.73
86.49, 2.72
86.60, 2.73
86.72, 2.72
86.84, 2.72
86.96, 2.72
87.07, 2.73
87.19, 2.72
87.31, 2.73
87.42, 2.71
87.54, 2.73
87.66, 2.72
87.77, 2.72
87.89, 2.71
88.00, 2.73
88.12, 2.71
88.24, 2.72
88.35, 2.71
88.47, 2.72
88.59, 2.72
88.70, 2.71
88.82, 2.71
88.94, 2.72
89.05, 2.71
89.17, 2.71
89.29, 2.71
89.40, 2.71
89.52, 2.72
89.64, 2.71
89.75, 2.71
89.87, 2.72
89.98, 2.71
90.10, 2.71
90.22, 2.72
90.34, 2.72
90.45, 2.70
90.57, 2.71
90.68, 2.71
90.80, 2.71
90.92, 2.71
91.04, 2.70
91.15, 2.71
91.27, 2.70
91.38, 2.71
91.50, 2.70
91.62, 2.71
91.73, 2.70
91.85, 2.70
91.97, 2.70
92.08, 2.70
92.20, 2.70
92.32, 2.70
92.43, 2.70
92.55, 2.70
92.67, 2.70
92.78, 2.71
92.90, 2.70
93.02, 2.70
93.13, 2.70
93.25, 2.70
93.38, 2.71
93.50, 2.70
93.62, 2.69
93.73, 2.70
93.85, 2.70
93.97, 2.69
94.08, 2.70
94.20, 2.69
94.32, 2.69
94.43, 2.70
94.55, 2.69
94.66, 2.69
94.78, 2.70
94.90, 2.69
95.01, 2.69
95.13, 2.69
95.25, 2.69
95.36, 2.68
95.48, 2.69
95.60, 2.69
95.71, 2.69
95.83, 2.69
95.95, 2.68
96.06, 2.68
96.18, 2.68
96.30, 2.69
96.41, 2.68
96.53, 2.69
96.65, 2.68
96.76, 2.68
96.88, 2.69
97.00, 2.68
97.11, 2.68
97.23, 2.69
97.35, 2.68
97.46, 2.68
97.58, 2.69
97.70, 2.68
97.81, 2.67
97.93, 2.68
98.04, 2.68
98.16, 2.68
98.28, 2.68
98.40, 2.67
98.51, 2.69
98.63, 2.67
98.74, 2.68
98.86, 2.67
98.98, 2.68
99.09, 2.67
99.21, 2.68
99.33, 2.67
99.44, 2.67
99.56, 2.67
99.68, 2.67
99.79, 2.67
99.91, 2.67
100.03, 2.68
100.14, 2.67
100.26, 2.68
100.38, 2.67
100.49, 2.67
100.61, 2.67
100.73, 2.67
100.84, 2.67
100.96, 2.68
101.08, 2.67
101.19, 2.67
101.31, 2.68
101.43, 2.68
101.54, 2.66
101.66, 2.67
101.78, 2.67
101.89, 2.67
102.01, 2.67
102.12, 2.66
102.24, 2.67
102.36, 2.66
102.47, 2.66
102.59, 2.66
102.71, 2.66
102.82, 2.66
102.94, 2.66
103.06, 2.66
103.22, 2.66
103.34, 2.66
103.45, 2.66
103.57, 2.66
103.69, 2.66
103.81, 2.67
103.92, 2.66
104.04, 2.66
104.16, 2.66
104.27, 2.65
104.39, 2.66
104.50, 2.66
104.62, 2.65
104.74, 2.67
104.86, 2.67
104.97, 2.66
105.09, 2.66
105.20, 2.66
105.32, 2.65
105.44, 2.65
105.55, 2.65
105.67, 2.66
105.79, 2.65
105.90, 2.65
106.02, 2.65
106.14, 2.64
106.25, 2.65
106.37, 2.65
106.49, 2.65
106.60, 2.65
106.72, 2.65
106.84, 2.65
106.95, 2.65
107.07, 2.65
107.19, 2.65
107.30, 2.65
107.42, 2.64
107.54, 2.66
107.65, 2.65
107.77, 2.64
107.88, 2.66
108.00, 2.64
108.12, 2.65
108.23, 2.66
108.35, 2.65
108.47, 2.65
108.59, 2.65
108.70, 2.65
108.82, 2.64
108.93, 2.65
109.05, 2.63
109.17, 2.64
109.28, 2.64
109.40, 2.64
109.52, 2.64
109.63, 2.63
109.75, 2.63
109.87, 2.63
109.98, 2.64
110.10, 2.64
110.22, 2.63
110.33, 2.64
110.45, 2.64
110.57, 2.64
110.68, 2.64
110.80, 2.63
110.91, 2.64
111.03, 2.64
111.15, 2.63
111.27, 2.64
111.38, 2.64
111.50, 2.63
111.62, 2.64
111.73, 2.63
111.85, 2.63
111.96, 2.64
112.08, 2.63
112.20, 2.63
112.31, 2.63
112.43, 2.63
112.55, 2.62
112.66, 2.63
112.78, 2.62
112.90, 2.63
113.01, 2.63
113.13, 2.62
113.26, 2.62
113.38, 2.61
113.50, 2.61
113.61, 2.61
113.73, 2.60
113.85, 2.59
113.96, 2.59
114.08, 2.58
114.20, 2.58
114.31, 2.58
114.43, 2.57
114.54, 2.58
114.66, 2.57
114.78, 2.58
114.89, 2.57
115.01, 2.57
115.13, 2.57
115.24, 2.57
115.36, 2.56
115.48, 2.57
115.59, 2.56
115.71, 2.56
115.83, 2.57
115.94, 2.56
116.06, 2.55
116.18, 2.56
116.29, 2.56
116.41, 2.55
116.53, 2.55
116.64, 2.55
116.76, 2.55
116.88, 2.54
116.99, 2.55
117.11, 2.54
117.23, 2.55
117.34, 2.54
117.46, 2.54
117.58, 2.55
117.69, 2.54
117.81, 2.54
117.93, 2.55
118.04, 2.54
118.16, 2.55
118.28, 2.55
118.39, 2.55
118.51, 2.54
118.63, 2.55
118.74, 2.55
118.86, 2.54
118.97, 2.55
119.09, 2.54
119.21, 2.54
119.32, 2.55
119.44, 2.55
119.56, 2.54
119.67, 2.55
119.79, 2.55
119.91, 2.54
120.02, 2.55
120.14, 2.54
120.26, 2.54
120.37, 2.54
120.49, 2.54
120.61, 2.54
120.72, 2.53
120.84, 2.53
120.96, 2.54
121.07, 2.53
121.19, 2.54
121.31, 2.54
121.42, 2.54
121.54, 2.53
121.66, 2.54
121.77, 2.54
121.89, 2.53
122.01, 2.54
122.12, 2.53
122.24, 2.54
122.36, 2.54
122.47, 2.53
122.59, 2.54
122.70, 2.53
122.82, 2.53
122.94, 2.54
123.05, 2.54
123.17, 2.53
123.29, 2.54
123.40, 2.53
123.52, 2.53
123.64, 2.54
123.75, 2.52
123.87, 2.53
123.99, 2.53
124.10, 2.53
124.22, 2.53
124.34, 2.54
124.45, 2.53
124.57, 2.53
124.69, 2.52
124.80, 2.53
124.92, 2.53
125.04, 2.53
125.15, 2.53
125.27, 2.53
125.39, 2.53
125.50, 2.53
125.62, 2.53
125.73, 2.53
125.85, 2.53
125.97, 2.54
126.10, 2.53
126.22, 2.53
126.33, 2.54
126.45, 2.53
126.57, 2.53
126.68, 2.53
126.80, 2.54
126.92, 2.53
127.03, 2.53
127.15, 2.53
127.27, 2.52
127.38, 2.53
127.50, 2.52
127.62, 2.52
127.73, 2.52
127.85, 2.53
127.97, 2.52
128.08, 2.53
128.20, 2.52
128.32, 2.53
128.43, 2.52
128.55, 2.52
128.66, 2.52
128.78, 2.52
128.90, 2.52
129.02, 2.53
129.13, 2.52
129.25, 2.53
129.37, 2.52
129.48, 2.52
129.60, 2.53
129.71, 2.52
129.83, 2.53
129.95, 2.53
130.06, 2.51
130.18, 2.52
130.30, 2.53
130.41, 2.52
130.53, 2.52
130.65, 2.53
130.76, 2.52
130.88, 2.52
131.00, 2.52
131.11, 2.51
131.23, 2.52
131.35, 2.51
131.46, 2.52
131.58, 2.52
131.70, 2.52
131.81, 2.52
131.93, 2.52
132.05, 2.51
132.16, 2.51
132.28, 2.52
132.40, 2.52
132.51, 2.52
132.63, 2.52
132.75, 2.52
132.86, 2.52
132.98, 2.52
133.09, 2.52
133.21, 2.52
133.33, 2.52
133.45, 2.52
133.56, 2.51
133.68, 2.52
133.80, 2.52
133.91, 2.51
134.03, 2.52
134.14, 2.52
134.26, 2.51
134.38, 2.51
134.49, 2.52
134.61, 2.51
134.73, 2.52
134.84, 2.51
134.96, 2.51
135.08, 2.51
135.19, 2.52
135.31, 2.51
135.43, 2.51
135.54, 2.51
135.66, 2.51
135.77, 2.51
135.89, 2.51
136.01, 2.51
136.12, 2.51
136.24, 2.52
136.36, 2.51
136.47, 2.51
136.59, 2.52
136.71, 2.51
136.82, 2.52
136.94, 2.52
137.06, 2.51
137.17, 2.52
137.29, 2.51
137.41, 2.51
137.52, 2.51
137.64, 2.52
137.76, 2.51
137.87, 2.52
137.99, 2.52
138.11, 2.51
138.22, 2.52
138.34, 2.51
138.46, 2.52
138.57, 2.50
138.69, 2.51
138.81, 2.50
138.92, 2.51
139.04, 2.50
139.15, 2.51
139.27, 2.50
139.39, 2.50
139.51, 2.50
139.62, 2.51
139.74, 2.50
139.85, 2.51
139.97, 2.51
140.09, 2.51
140.20, 2.51
140.32, 2.50
140.44, 2.51
140.55, 2.51
140.67, 2.50
140.79, 2.52
140.90, 2.51
141.02, 2.50
141.14, 2.51
141.25, 2.51
141.37, 2.51
141.49, 2.51
141.60, 2.51
141.72, 2.49
141.84, 2.51
141.95, 2.50
142.07, 2.51
142.19, 2.50
142.30, 2.50
142.42, 2.50
142.54, 2.51
142.65, 2.50
142.77, 2.51
142.89, 2.50
143.00, 2.50
143.12, 2.50
143.24, 2.50
143.35, 2.51
143.47, 2.50
143.58, 2.50
143.70, 2.50
143.82, 2.50
143.93, 2.51
144.05, 2.50
144.17, 2.50
144.28, 2.51
144.40, 2.50
144.52, 2.50
144.63, 2.51
144.75, 2.50
144.87, 2.50
144.98, 2.51
145.10, 2.51
145.22, 2.49
145.33, 2.51
145.45, 2.50
145.56, 2.50
145.68, 2.50
145.80, 2.49
145.92, 2.50
146.03, 2.49
146.15, 2.50
146.27, 2.49
146.38, 2.50
146.50, 2.50
146.62, 2.50
146.73, 2.50
146.85, 2.49
146.96, 2.50
147.08, 2.50
147.20, 2.51
147.31, 2.50
147.43, 2.50
147.55, 2.50
147.66, 2.49
147.78, 2.51
147.90, 2.50
148.01, 2.50
148.13, 2.51
148.25, 2.50
148.36, 2.49
148.48, 2.49
148.60, 2.50
148.71, 2.49
148.83, 2.50
148.95, 2.50
149.06, 2.49
149.18, 2.50
149.30, 2.49
149.41, 2.50
149.53, 2.49
149.65, 2.50
149.76, 2.49
149.88, 2.50
150.00, 2.49
150.11, 2.49
150.23, 2.49
150.34, 2.49
150.46, 2.49
150.58, 2.49
150.69, 2.50
150.81, 2.49
150.93, 2.50
151.05, 2.49
151.16, 2.49
151.28, 2.50
151.39, 2.49
151.51, 2.49
151.63, 2.50
151.74, 2.49
151.86, 2.49
151.98, 2.50
152.09, 2.49
152.21, 2.49
152.33, 2.50
152.44, 2.49
152.56, 2.49
152.68, 2.50
152.79, 2.49
152.91, 2.50
153.03, 2.49
153.14, 2.50
153.26, 2.49
153.38, 2.49
153.49, 2.48
153.61, 2.49
153.72, 2.49
153.84, 2.49
153.96, 2.49
154.07, 2.49
154.19, 2.49
154.31, 2.49
154.43, 2.49
154.54, 2.49
154.66, 2.50
154.77, 2.49
154.89, 2.48
155.01, 2.50
155.12, 2.49
155.24, 2.49
155.36, 2.49
155.47, 2.49
155.59, 2.49
155.71, 2.49
155.83, 2.48
155.94, 2.48
156.06, 2.49
156.17, 2.49
156.29, 2.49
156.41, 2.49
156.52, 2.48
156.64, 2.49
156.76, 2.48
156.87, 2.49
156.99, 2.48
157.11, 2.48
157.22, 2.48
157.34, 2.48
157.45, 2.48
157.57, 2.48
157.69, 2.48
157.81, 2.49
157.92, 2.48
158.04, 2.48
158.15, 2.48
158.27, 2.48
158.39, 2.49
158.50, 2.48
158.62, 2.48
158.74, 2.49
158.85, 2.48
158.97, 2.49
159.09, 2.49
159.20, 2.48
159.32, 2.48
159.44, 2.49
159.55, 2.48
159.67, 2.48
159.79, 2.49
159.90, 2.48
160.02, 2.49
160.14, 2.48
160.25, 2.48
160.37, 2.48
160.49, 2.47
160.60, 2.48
160.72, 2.47
160.83, 2.48
160.95, 2.48
161.07, 2.48
161.19, 2.48
161.30, 2.48
161.42, 2.48
161.54, 2.48
161.65, 2.48
161.77, 2.48
161.89, 2.48
162.00, 2.48
162.12, 2.49
162.24, 2.48
162.35, 2.48
162.47, 2.48
162.59, 2.48
162.70, 2.48
162.82, 2.48
162.93, 2.48
163.05, 2.48
163.17, 2.48
163.28, 2.48
163.40, 2.47
163.52, 2.48
163.63, 2.47
163.75, 2.48
163.87, 2.47
163.98, 2.48
164.10, 2.47
164.22, 2.48
164.33, 2.47
164.45, 2.48
164.60, 2.47
164.72, 2.47
164.83, 2.47
164.95, 2.47
165.06, 2.47
165.18, 2.47
165.30, 2.48
165.41, 2.47
165.53, 2.48
165.65, 2.47
165.76, 2.48
165.88, 2.48
166.00, 2.47
166.11, 2.47
166.23, 2.48
166.35, 2.47
166.47, 2.48
166.60, 2.48
166.75, 2.47
166.87, 2.47
166.99, 2.48
167.12, 2.46
167.23, 2.46
167.35, 2.47
167.47, 2.46
167.58, 2.47
167.70, 2.46
167.81, 2.47
167.93, 2.46
168.04, 2.46
168.16, 2.46
168.28, 2.46
168.40, 2.46
168.51, 2.46
168.63, 2.46
168.75, 2.46
168.86, 2.46
168.98, 2.46
169.10, 2.46
169.21, 2.46
169.33, 2.46
169.46, 2.46
169.58, 2.47
169.70, 2.47
169.81, 2.46
169.93, 2.46
170.04, 2.47
170.16, 2.46
170.28, 2.46
170.39, 2.46
170.53, 2.46
170.64, 2.46
170.76, 2.46
170.88, 2.45
170.99, 2.46
171.11, 2.45
171.24, 2.46
171.36, 2.45
171.48, 2.46
171.61, 2.45
171.73, 2.45
171.86, 2.45
171.98, 2.45
172.09, 2.45
172.21, 2.45
172.32, 2.45
172.44, 2.45
172.56, 2.45
172.68, 2.45
172.79, 2.45
172.91, 2.45
173.02, 2.45
173.14, 2.46
173.26, 2.45
173.37, 2.45
173.49, 2.46
173.61, 2.45
173.72, 2.45
173.84, 2.46
173.96, 2.45
174.07, 2.45
174.19, 2.45
174.30, 2.45
174.42, 2.44
174.54, 2.45
174.66, 2.43
174.79, 2.45
174.91, 2.44
175.02, 2.45
175.14, 2.44
175.26, 2.44
175.37, 2.44
175.49, 2.45
175.60, 2.44
175.72, 2.44
175.84, 2.44
175.95, 2.44
176.07, 2.44
176.19, 2.44
176.30, 2.44
176.42, 2.44
176.54, 2.44
176.65, 2.45
176.77, 2.44
176.89, 2.44
177.00, 2.45
177.12, 2.44
177.24, 2.45
177.35, 2.45
177.47, 2.44
177.59, 2.44
177.70, 2.45
177.82, 2.45
177.94, 2.44
178.05, 2.45
178.17, 2.44
178.29, 2.45
178.40, 2.43
178.52, 2.44
178.63, 2.44
178.75, 2.44
178.87, 2.44
178.99, 2.43
179.10, 2.44
179.22, 2.44
179.34, 2.44
179.45, 2.44
179.57, 2.44
179.68, 2.44
179.80, 2.44
179.92, 2.44
180.03, 2.44
180.15, 2.45
180.27, 2.44
180.38, 2.44
180.50, 2.44
180.62, 2.44
180.73, 2.45
180.85, 2.44
180.97, 2.43
181.08, 2.44
181.20, 2.44
181.32, 2.43
181.43, 2.44
181.55, 2.44
181.66, 2.43
181.78, 2.44
181.90, 2.44
182.01, 2.44
182.13, 2.44
182.25, 2.43
182.36, 2.44
182.48, 2.43
182.60, 2.44
182.72, 2.43
182.83, 2.43
182.95, 2.43
183.06, 2.43
183.18, 2.43
183.30, 2.43
183.41, 2.44
183.53, 2.44
183.65, 2.43
183.76, 2.43
183.88, 2.44
184.00, 2.43
184.11, 2.44
184.23, 2.44
184.35, 2.43
184.46, 2.44
184.58, 2.44
184.70, 2.43
184.81, 2.43
184.93, 2.44
185.05, 2.44
185.16, 2.43
185.28, 2.44
185.40, 2.43
185.52, 2.43
185.63, 2.44
185.74, 2.42
185.86, 2.43
185.98, 2.42
186.09, 2.44
186.21, 2.42
186.33, 2.43
186.44, 2.43
186.56, 2.43
186.68, 2.42
186.79, 2.42
186.91, 2.43
187.03, 2.43
187.14, 2.43
187.26, 2.43
187.38, 2.43
187.49, 2.43
187.61, 2.43
187.73, 2.43
187.84, 2.43
187.96, 2.42
188.08, 2.43
188.19, 2.43
188.31, 2.42
188.43, 2.43
